INPUT FILE: input
OUTPUT FILE:output
ATOM NUMBER:27
ATOM MASS:  1.000000 u
EPS:        1.000000 KJ/mol
R:          0.380000 nm
f:          10000.000000
L:          2.300000 nm
A:          0.380000 nm
T:          1000.000000 K
TAU:        0.000010 ps
S_0:        0
S_D:        10000
S_OUT:      10
S_XYZ:      10
AVERAGE MOMENTUM 0.000000 0.000000 0.000000
CALCULATED TEMPERATURE 1049.878345 
CALCULATED KIN ENERGY 353.341806 
CALCULATED POT ENERGY -207.529188 
CALCULATED TOTAL ENERGY 145.812618 
CALCULATED PRESSURE 1.916523 
KONIEC TERMALIZACJI
TIME [ps]	TEMP. [K]	E_KIN [kJ/mol]	E_POT [kJ/mol]	E_TOT [kJ/mol]	PRES. [kJ/mol/nm^3]
0.000000	-nan	-nan	-nan	-nan	-nan
0.000100	 1049.906942	 353.351431	-207.548438	145.802993	1.916544 
0.000200	 1049.904907	 353.350746	-207.547068	145.803678	1.916538 
0.000300	 1049.875819	 353.340956	-207.527489	145.813467	1.916507 
0.000400	 1049.819304	 353.321936	-207.489448	145.832488	1.916451 
0.000500	 1049.734962	 353.293550	-207.432677	145.860873	1.916369 
0.000600	 1049.622361	 353.255654	-207.356885	145.898769	1.916262 
0.000700	 1049.481045	 353.208093	-207.261763	145.946330	1.916128 
0.000800	 1049.310522	 353.150703	-207.146983	146.003720	1.915968 
0.000900	 1049.110275	 353.083308	-207.012195	146.071114	1.915780 
0.001000	 1048.879752	 353.005725	-206.857028	146.148697	1.915566 
0.001100	 1048.618374	 352.917757	-206.681093	146.236664	1.915323 
0.001200	 1048.325527	 352.819198	-206.483974	146.335223	1.915051 
0.001300	 1048.000565	 352.709830	-206.265239	146.444591	1.914751 
0.001400	 1047.642808	 352.589425	-206.024430	146.564995	1.914421 
0.001500	 1047.251543	 352.457743	-205.761066	146.696677	1.914060 
0.001600	 1046.826023	 352.314532	-205.474645	146.839887	1.913669 
0.001700	 1046.365466	 352.159529	-205.164639	146.994890	1.913246 
0.001800	 1045.869051	 351.992458	-204.830498	147.161960	1.912791 
0.001900	 1045.335924	 351.813032	-204.471646	147.341386	1.912303 
0.002000	 1044.765192	 351.620949	-204.087481	147.533468	1.911781 
0.002100	 1044.155923	 351.415897	-203.677377	147.738520	1.911224 
0.002200	 1043.507149	 351.197548	-203.240681	147.956868	1.910632 
0.002300	 1042.817859	 350.965565	-202.776714	148.188851	1.910003 
0.002400	 1042.087005	 350.719592	-202.284769	148.434823	1.909337 
0.002500	 1041.313496	 350.459263	-201.764112	148.695151	1.908633 
0.002600	 1040.496198	 350.184198	-201.213982	148.970216	1.907889 
0.002700	 1039.633939	 349.894000	-200.633588	149.260413	1.907105 
0.002800	 1038.725499	 349.588260	-200.022108	149.566152	1.906280 
0.002900	 1037.769618	 349.266554	-199.378696	149.887858	1.905412 
0.003000	 1036.764989	 348.928441	-198.702471	150.225970	1.904499 
0.003100	 1035.710262	 348.573467	-197.992524	150.580943	1.903542 
0.003200	 1034.604039	 348.201162	-197.247916	150.953247	1.902539 
0.003300	 1033.444879	 347.811041	-196.467674	151.343367	1.901487 
0.003400	 1032.231292	 347.402603	-195.650798	151.751805	1.900387 
0.003500	 1030.961743	 346.975330	-194.796253	152.179077	1.899236 
0.003600	 1029.634649	 346.528689	-193.902973	152.625716	1.898032 
0.003700	 1028.248380	 346.062134	-192.969863	153.092271	1.896775 
0.003800	 1026.801258	 345.575098	-191.995791	153.579306	1.895463 
0.003900	 1025.291559	 345.067001	-190.979599	154.087402	1.894094 
0.004000	 1023.717512	 344.537247	-189.920093	154.617154	1.892667 
0.004100	 1022.077298	 343.985225	-188.816050	155.169175	1.891179 
0.004200	 1020.369053	 343.410307	-187.666214	155.744093	1.889628 
0.004300	 1018.590868	 342.811849	-186.469301	156.342549	1.888014 
0.004400	 1016.740789	 342.189196	-185.223996	156.965201	1.886333 
0.004500	 1014.816820	 341.541675	-183.928954	157.612721	1.884585 
0.004600	 1012.816924	 340.868600	-182.582805	158.285795	1.882766 
0.004700	 1010.739022	 340.169272	-181.184150	158.985121	1.880875 
0.004800	 1008.581001	 339.442979	-179.731566	159.711413	1.878909 
0.004900	 1006.340712	 338.688998	-178.223606	160.465392	1.876866 
0.005000	 1004.015973	 337.906596	-176.658803	161.247793	1.874744 
0.005100	 1001.604577	 337.095029	-175.035669	162.059359	1.872541 
0.005200	 999.104291	 336.253545	-173.352703	162.900842	1.870254 
0.005300	 996.512861	 335.381386	-171.608387	163.772999	1.867880 
0.005400	 993.828023	 334.477790	-169.801197	164.676593	1.865417 
0.005500	 991.047499	 333.541991	-167.929600	165.612391	1.862862 
0.005600	 988.169014	 332.573223	-165.992065	166.581158	1.860213 
0.005700	 985.190295	 331.570720	-163.987060	167.583659	1.857466 
0.005800	 982.109082	 330.533722	-161.913066	168.620655	1.854620 
0.005900	 978.923138	 329.461477	-159.768577	169.692899	1.851671 
0.006000	 975.630258	 328.353242	-157.552109	170.801133	1.848616 
0.006100	 972.228279	 327.208288	-155.262204	171.946084	1.845452 
0.006200	 968.715092	 326.025908	-152.897444	173.128464	1.842177 
0.006300	 965.088655	 324.805412	-150.456454	174.348958	1.838788 
0.006400	 961.347006	 323.546142	-147.937915	175.608227	1.835281 
0.006500	 957.488282	 322.247469	-145.340570	176.906898	1.831653 
0.006600	 953.510729	 320.908804	-142.663241	178.245562	1.827902 
0.006700	 949.412725	 319.529600	-139.904835	179.624765	1.824025 
0.006800	 945.192795	 318.109361	-137.064359	181.045002	1.820018 
0.006900	 940.849633	 316.647648	-134.140934	182.506714	1.815879 
0.007000	 936.382124	 315.144086	-131.133810	184.010275	1.811605 
0.007100	 931.789364	 313.598370	-128.042379	185.555990	1.807193 
0.007200	 927.070688	 312.010275	-124.866191	187.144084	1.802641 
0.007300	 922.225688	 310.379666	-121.604974	188.774692	1.797945 
0.007400	 917.254247	 308.706503	-118.258649	190.447855	1.793105 
0.007500	 912.156562	 306.990852	-114.827346	192.163505	1.788116 
0.007600	 906.933170	 305.232893	-111.311430	193.921464	1.782978 
0.007700	 901.584983	 303.432934	-107.711512	195.721423	1.777689 
0.007800	 896.113310	 301.591415	-104.028474	197.562941	1.772247 
0.007900	 890.519891	 299.708922	-100.263487	199.445435	1.766651 
0.008000	 884.806924	 297.786194	-96.418032	201.368163	1.760899 
0.008100	 878.977098	 295.824137	-92.493917	203.330221	1.754993 
0.008200	 873.033614	 293.823828	-88.493297	205.330530	1.748931 
0.008300	 866.980221	 291.786528	-84.418697	207.367831	1.742714 
0.008400	 860.821235	 289.713691	-80.273020	209.440670	1.736343 
0.008500	 854.561566	 287.606968	-76.059573	211.547395	1.729819 
0.008600	 848.206738	 285.468219	-71.782073	213.686146	1.723146 
0.008700	 841.762907	 283.299515	-67.444664	215.854851	1.716325 
0.008800	 835.236877	 281.103147	-63.051925	218.051222	1.709361 
0.008900	 828.636105	 278.881624	-58.608877	220.272748	1.702257 
0.009000	 821.968712	 276.637680	-54.120985	222.516695	1.695020 
0.009100	 815.243478	 274.374269	-49.594159	224.780110	1.687655 
0.009200	 808.469836	 272.094566	-45.034749	227.059816	1.680171 
0.009300	 801.657860	 269.801961	-40.449536	229.352425	1.672574 
0.009400	 794.818241	 267.500053	-35.845716	231.654337	1.664876 
0.009500	 787.962262	 265.192639	-31.230883	233.961756	1.657086 
0.009600	 781.101757	 262.883702	-26.613005	236.270697	1.649216 
0.009700	 774.249071	 260.577396	-22.000388	238.577008	1.641279 
0.009800	 767.417001	 258.278029	-17.401648	240.876381	1.633291 
0.009900	 760.618739	 255.990040	-12.825665	243.164375	1.625268 
0.010000	 753.867798	 253.717977	-8.281534	245.436443	1.617229 
0.010100	 747.177939	 251.466471	-3.778517	247.687955	1.609196 
0.010200	 740.563081	 249.240208	0.674016	249.914224	1.601195 
0.010300	 734.037212	 247.043894	5.066649	252.110543	1.593257 
0.010400	 727.614294	 244.882229	9.389985	254.272214	1.585422 
0.010500	 721.308160	 242.759868	13.634713	256.394580	1.577743 
0.010600	 715.132409	 240.681388	17.791678	258.473066	1.570288 
0.010700	 709.100304	 238.651253	21.851953	260.503206	1.563149 
0.010800	 703.224663	 236.673777	25.806911	262.480687	1.556438 
0.010900	 697.517759	 234.753090	29.648290	264.401379	1.550268 
0.011000	 691.991218	 232.893104	33.368265	266.261369	1.544710 
0.011100	 686.655922	 231.097484	36.959509	268.056993	1.539764 
0.011200	 681.521929	 229.369613	40.415255	269.784868	1.535366 
0.011300	 676.598384	 227.712569	43.729346	271.441915	1.531431 
0.011400	 671.893456	 226.129102	46.896283	273.025385	1.527880 
0.011500	 667.414280	 224.621613	49.911264	274.532877	1.524657 
0.011600	 663.166905	 223.192138	52.770216	275.962354	1.521721 
0.011700	 659.156269	 221.842338	55.469817	277.312155	1.519045 
0.011800	 655.386175	 220.573494	58.007506	278.581000	1.516611 
0.011900	 651.859283	 219.386501	60.381492	279.767993	1.514406 
0.012000	 648.577126	 218.281875	62.590745	280.872620	1.512418 
0.012100	 645.540122	 217.259756	64.634983	281.894739	1.510639 
0.012200	 642.747613	 216.319923	66.514648	282.834571	1.509059 
0.012300	 640.197908	 215.461807	68.230878	283.692685	1.507670 
0.012400	 637.888341	 214.684511	69.785470	284.469980	1.506464 
0.012500	 635.815333	 213.986829	71.180830	285.167659	1.505429 
0.012600	 633.974467	 213.367277	72.419933	285.787210	1.504558 
0.012700	 632.360566	 212.824110	73.506264	286.330374	1.503839 
0.012800	 630.967775	 212.355359	74.443763	286.799122	1.503262 
0.012900	 629.789650	 211.958856	75.236767	287.195623	1.502818 
0.013000	 628.819244	 211.632261	75.889954	287.522215	1.502496 
0.013100	 628.049196	 211.373097	76.408278	287.781375	1.502287 
0.013200	 627.471814	 211.178776	76.796916	287.975693	1.502181 
0.013300	 627.079165	 211.046628	77.061209	288.107837	1.502170 
0.013400	 626.863145	 210.973926	77.206611	288.180537	1.502245 
0.013500	 626.815565	 210.957913	77.238634	288.196547	1.502401 
0.013600	 626.928212	 210.995824	77.162807	288.158632	1.502629 
0.013700	 627.192915	 211.084911	76.984630	288.069541	1.502925 
0.013800	 627.601604	 211.222458	76.709534	287.931992	1.503283 
0.013900	 628.146359	 211.405798	76.342851	287.748649	1.503698 
0.014000	 628.819451	 211.632330	75.889783	287.522114	1.504169 
0.014100	 629.613382	 211.899532	75.355377	287.254909	1.504690 
0.014200	 630.520915	 212.204967	74.744505	286.949472	1.505260 
0.014300	 631.535094	 212.546294	74.061849	286.608142	1.505877 
0.014400	 632.649267	 212.921274	73.311886	286.233160	1.506540 
0.014500	 633.857093	 213.327774	72.498884	285.826658	1.507247 
0.014600	 635.152553	 213.763768	71.626895	285.390662	1.507999 
0.014700	 636.529952	 214.227338	70.699752	284.927090	1.508795 
0.014800	 637.983913	 214.716676	69.721075	284.437750	1.509635 
0.014900	 639.509379	 215.230079	68.694267	283.924346	1.510520 
0.015000	 641.101597	 215.765948	67.622527	283.388475	1.511450 
0.015100	 642.756115	 216.322784	66.508854	282.831638	1.512426 
0.015200	 644.468761	 216.899184	65.356054	282.255237	1.513450 
0.015300	 646.235634	 217.493834	64.166753	281.660586	1.514522 
0.015400	 648.053086	 218.105506	62.943407	281.048913	1.515645 
0.015500	 649.917705	 218.733053	61.688312	280.421365	1.516820 
0.015600	 651.826300	 219.375400	60.403617	279.779017	1.518050 
0.015700	 653.775880	 220.031541	59.091335	279.122876	1.519338 
0.015800	 655.763640	 220.700532	57.753353	278.453885	1.520686 
0.015900	 657.786942	 221.381484	56.391448	277.772932	1.522098 
0.016000	 659.843299	 222.073562	55.007292	277.080854	1.523577 
0.016100	 661.930361	 222.775973	53.602470	276.378443	1.525130 
0.016200	 664.045897	 223.487967	52.178481	275.666448	1.526761 
0.016300	 666.187783	 224.208829	50.736756	274.945585	1.528475 
0.016400	 668.353988	 224.937876	49.278661	274.216538	1.530278 
0.016500	 670.542564	 225.674453	47.805509	273.479961	1.532175 
0.016600	 672.751633	 226.417926	46.318562	272.736488	1.534171 
0.016700	 674.979378	 227.167685	44.819044	271.986729	1.536268 
0.016800	 677.224035	 227.923135	43.308143	271.231278	1.538467 
0.016900	 679.483884	 228.683699	41.787016	270.470714	1.540767 
0.017000	 681.757245	 229.448810	40.256794	269.705603	1.543163 
0.017100	 684.042470	 230.217914	38.718586	268.936499	1.545648 
0.017200	 686.337940	 230.990465	37.173481	268.163947	1.548214 
0.017300	 688.642061	 231.765929	35.622554	267.388483	1.550851 
0.017400	 690.953261	 232.543775	34.066862	266.610637	1.553549 
0.017500	 693.269989	 233.323481	32.507450	265.830931	1.556298 
0.017600	 695.590711	 234.104532	30.945348	265.049880	1.559089 
0.017700	 697.913913	 234.886417	29.381577	264.267994	1.561912 
0.017800	 700.238100	 235.668634	27.817144	263.485777	1.564761 
0.017900	 702.561794	 236.450685	26.253042	262.703727	1.567628 
0.018000	 704.883536	 237.232078	24.690254	261.922332	1.570508 
0.018100	 707.201889	 238.012332	23.129747	261.142079	1.573394 
0.018200	 709.515437	 238.790968	21.572475	260.363442	1.576283 
0.018300	 711.822789	 239.567519	20.019373	259.586892	1.579170 
0.018400	 714.122578	 240.341524	18.471362	258.812886	1.582052 
0.018500	 716.413465	 241.112534	16.929343	258.041876	1.584925 
0.018600	 718.694141	 241.880106	15.394197	257.274303	1.587788 
0.018700	 720.963328	 242.643813	13.866784	256.510597	1.590637 
0.018800	 723.219783	 243.403234	12.347941	255.751175	1.593470 
0.018900	 725.462298	 244.157964	10.838481	254.996445	1.596286 
0.019000	 727.689703	 244.907608	9.339193	254.246801	1.599082 
0.019100	 729.900868	 245.651787	7.850836	253.502622	1.601858 
0.019200	 732.094703	 246.390133	6.374143	252.764276	1.604611 
0.019300	 734.270162	 247.122294	4.909820	252.032114	1.607340 
0.019400	 736.426246	 247.847935	3.458538	251.306473	1.610045 
0.019500	 738.561999	 248.566733	2.020942	250.587675	1.612724 
0.019600	 740.676512	 249.278384	0.597641	249.876025	1.615377 
0.019700	 742.768928	 249.982596	-0.810785	249.171812	1.618002 
0.019800	 744.838434	 250.679099	-2.203790	248.475309	1.620600 
0.019900	 746.884272	 251.367636	-3.580864	247.786772	1.623168 
0.020000	 748.905730	 252.047968	-4.941528	247.106440	1.625708 
0.020100	 750.902150	 252.719873	-6.285338	246.434535	1.628217 
0.020200	 752.872923	 253.383147	-7.611885	245.771261	1.630697 
0.020300	 754.817492	 254.037601	-8.920794	245.116807	1.633146 
0.020400	 756.735351	 254.683066	-10.211724	244.471342	1.635565 
0.020500	 758.626045	 255.319389	-11.484369	243.835020	1.637952 
0.020600	 760.489170	 255.946432	-12.738456	243.207976	1.640309 
0.020700	 762.324370	 256.564078	-13.973748	242.590330	1.642635 
0.020800	 764.131341	 257.172224	-15.190038	241.982185	1.644929 
0.020900	 765.909829	 257.770782	-16.387156	241.383626	1.647192 
0.021000	 767.659626	 258.359685	-17.564962	240.794724	1.649424 
0.021100	 769.380572	 258.938878	-18.723348	240.215531	1.651624 
0.021200	 771.072557	 259.508324	-19.862239	239.646085	1.653793 
0.021300	 772.735513	 260.068000	-20.981591	239.086409	1.655931 
0.021400	 774.369419	 260.617900	-22.081390	238.536510	1.658038 
0.021500	 775.974300	 261.158031	-23.161651	237.996379	1.660114 
0.021600	 777.550221	 261.688415	-24.222419	237.465996	1.662160 
0.021700	 779.097292	 262.209089	-25.263767	236.945322	1.664175 
0.021800	 780.615661	 262.720104	-26.285797	236.434307	1.666159 
0.021900	 782.105521	 263.221523	-27.288636	235.932888	1.668114 
0.022000	 783.567098	 263.713425	-28.272438	235.440987	1.670038 
0.022100	 785.000661	 264.195898	-29.237383	234.958514	1.671934 
0.022200	 786.406514	 264.669044	-30.183676	234.485368	1.673800 
0.022300	 787.784995	 265.132979	-31.111546	234.021433	1.675637 
0.022400	 789.136480	 265.587828	-32.021243	233.566585	1.677446 
0.022500	 790.461375	 266.033728	-32.913043	233.120685	1.679227 
0.022600	 791.760120	 266.470827	-33.787241	232.683586	1.680980 
0.022700	 793.033186	 266.899284	-34.644154	232.255130	1.682706 
0.022800	 794.281074	 267.319267	-35.484119	231.835147	1.684406 
0.022900	 795.504312	 267.730954	-36.307493	231.423461	1.686081 
0.023000	 796.703458	 268.134532	-37.114650	231.019883	1.687730 
0.023100	 797.879094	 268.530198	-37.905982	230.624217	1.689354 
0.023200	 799.031828	 268.918157	-38.681898	230.236259	1.690955 
0.023300	 800.162292	 269.298620	-39.442824	229.855796	1.692532 
0.023400	 801.271138	 269.671808	-40.189199	229.482609	1.694088 
0.023500	 802.359043	 270.037948	-40.921479	229.116469	1.695621 
0.023600	 803.426701	 270.397273	-41.640129	228.757144	1.697134 
0.023700	 804.474824	 270.750024	-42.345630	228.404394	1.698627 
0.023800	 805.504142	 271.096446	-43.038474	228.057972	1.700101 
0.023900	 806.515400	 271.436790	-43.719162	227.717629	1.701557 
0.024000	 807.509358	 271.771312	-44.388205	227.383107	1.702996 
0.024100	 808.486788	 272.100271	-45.046122	227.054149	1.704419 
0.024200	 809.448472	 272.423931	-45.693441	226.730490	1.705826 
0.024300	 810.395204	 272.742558	-46.330695	226.411863	1.707219 
0.024400	 811.327783	 273.056422	-46.958423	226.097999	1.708598 
0.024500	 812.247016	 273.365795	-47.577168	225.788627	1.709965 
0.024600	 813.153716	 273.670949	-48.187475	225.483473	1.711321 
0.024700	 814.048696	 273.972159	-48.789895	225.182264	1.712666 
0.024800	 814.932772	 274.269699	-49.384975	224.884724	1.714001 
0.024900	 815.806761	 274.563844	-49.973265	224.590579	1.715328 
0.025000	 816.671476	 274.854869	-50.555313	224.299555	1.716647 
0.025100	 817.527728	 275.143044	-51.131664	224.011380	1.717959 
0.025200	 818.376321	 275.428643	-51.702861	223.725782	1.719265 
0.025300	 819.218054	 275.711932	-52.269439	223.442493	1.720566 
0.025400	 820.053716	 275.993178	-52.831931	223.161248	1.721863 
0.025500	 820.884084	 276.272643	-53.390860	222.881783	1.723156 
0.025600	 821.709926	 276.550584	-53.946742	222.603842	1.724447 
0.025700	 822.531995	 276.827255	-54.500084	222.327172	1.725736 
0.025800	 823.351026	 277.102905	-55.051382	222.051523	1.727024 
0.025900	 824.167741	 277.377774	-55.601120	221.776654	1.728311 
0.026000	 824.982841	 277.652100	-56.149772	221.502328	1.729598 
0.026100	 825.797007	 277.926112	-56.697794	221.228317	1.730887 
0.026200	 826.610898	 278.200031	-57.245632	220.954399	1.732176 
0.026300	 827.425150	 278.474071	-57.793713	220.680358	1.733468 
0.026400	 828.240376	 278.748440	-58.342450	220.405990	1.734763 
0.026500	 829.057162	 279.023333	-58.892236	220.131097	1.736060 
0.026600	 829.876068	 279.298940	-59.443450	219.855490	1.737361 
0.026700	 830.697624	 279.575439	-59.996447	219.578992	1.738666 
0.026800	 831.522332	 279.852998	-60.551566	219.301433	1.739975 
0.026900	 832.350665	 280.131778	-61.109125	219.022653	1.741288 
0.027000	 833.183065	 280.411926	-61.669421	218.742505	1.742607 
0.027100	 834.019940	 280.693581	-62.232730	218.460851	1.743930 
0.027200	 834.861669	 280.976869	-62.799306	218.177563	1.745259 
0.027300	 835.708596	 281.261906	-63.369381	217.892526	1.746594 
0.027400	 836.561033	 281.548798	-63.943164	217.605634	1.747934 
0.027500	 837.419258	 281.837638	-64.520844	217.316794	1.749279 
0.027600	 838.283517	 282.128509	-65.102585	217.025924	1.750631 
0.027700	 839.154019	 282.421481	-65.688529	216.732952	1.751988 
0.027800	 840.030944	 282.716614	-66.278795	216.437819	1.753351 
0.027900	 840.914434	 283.013957	-66.873481	216.140476	1.754720 
0.028000	 841.804601	 283.313548	-67.472662	215.840886	1.756094 
0.028100	 842.701524	 283.615411	-68.076389	215.539022	1.757474 
0.028200	 843.605247	 283.919564	-68.684695	215.234869	1.758859 
0.028300	 844.515787	 284.226011	-69.297588	214.928423	1.760249 
0.028400	 845.433126	 284.534746	-69.915058	214.619688	1.761645 
0.028500	 846.357218	 284.845754	-70.537074	214.308680	1.763045 
0.028600	 847.287988	 285.159009	-71.163584	213.995425	1.764449 
0.028700	 848.225330	 285.474476	-71.794518	213.679958	1.765858 
0.028800	 849.169114	 285.792111	-72.429789	213.362322	1.767270 
0.028900	 850.119183	 286.111862	-73.069290	213.042572	1.768686 
0.029000	 851.075354	 286.433666	-73.712898	212.720768	1.770105 
0.029100	 852.037421	 286.757454	-74.360475	212.396979	1.771526 
0.029200	 853.005156	 287.083150	-75.011867	212.071284	1.772950 
0.029300	 853.978308	 287.410669	-75.666905	211.743764	1.774376 
0.029400	 854.956607	 287.739921	-76.325408	211.414513	1.775804 
0.029500	 855.939767	 288.070808	-76.987183	211.083625	1.777232 
0.029600	 856.927480	 288.403228	-77.652023	210.751205	1.778661 
0.029700	 857.919427	 288.737073	-78.319712	210.417361	1.780091 
0.029800	 858.915270	 289.072229	-78.990024	210.082204	1.781520 
0.029900	 859.914662	 289.408579	-79.662725	209.745854	1.782948 
0.030000	 860.917241	 289.746002	-80.337571	209.408431	1.784375 
0.030100	 861.922636	 290.084373	-81.014313	209.070060	1.785800 
0.030200	 862.930468	 290.423564	-81.692694	208.730869	1.787223 
0.030300	 863.940347	 290.763443	-82.372454	208.390989	1.788644 
0.030400	 864.951878	 291.103879	-83.053326	208.050553	1.790061 
0.030500	 865.964662	 291.444737	-83.735041	207.709696	1.791474 
0.030600	 866.978292	 291.785879	-84.417326	207.368553	1.792883 
0.030700	 867.992361	 292.127169	-85.099906	207.027263	1.794287 
0.030800	 869.006459	 292.468469	-85.782505	206.685964	1.795686 
0.030900	 870.020172	 292.809639	-86.464846	206.344793	1.797080 
0.031000	 871.033088	 293.150541	-87.146650	206.003891	1.798467 
0.031100	 872.044797	 293.491037	-87.827641	205.663395	1.799847 
0.031200	 873.054886	 293.830987	-88.507542	205.323445	1.801220 
0.031300	 874.062947	 294.170255	-89.186079	204.984176	1.802585 
0.031400	 875.068575	 294.508704	-89.862977	204.645727	1.803943 
0.031500	 876.071366	 294.846199	-90.537966	204.308233	1.805291 
0.031600	 877.070923	 295.182605	-91.210778	203.971827	1.806631 
0.031700	 878.066851	 295.517789	-91.881147	203.636642	1.807961 
0.031800	 879.058760	 295.851621	-92.548811	203.302810	1.809281 
0.031900	 880.046268	 296.183972	-93.213513	202.970459	1.810590 
0.032000	 881.028997	 296.514714	-93.874997	202.639717	1.811889 
0.032100	 882.006574	 296.843723	-94.533014	202.310708	1.813177 
0.032200	 882.978635	 297.170874	-95.187318	201.983556	1.814453 
0.032300	 883.944821	 297.496049	-95.837668	201.658381	1.815717 
0.032400	 884.904782	 297.819129	-96.483827	201.335302	1.816968 
0.032500	 885.858172	 298.139997	-97.125564	201.014434	1.818207 
0.032600	 886.804655	 298.458541	-97.762651	200.695890	1.819433 
0.032700	 887.743903	 298.774649	-98.394868	200.379781	1.820645 
0.032800	 888.675593	 299.088214	-99.021998	200.066216	1.821843 
0.032900	 889.599412	 299.399130	-99.643830	199.755300	1.823028 
0.033000	 890.515054	 299.707294	-100.260158	199.447136	1.824198 
0.033100	 891.422221	 300.012606	-100.870781	199.141825	1.825353 
0.033200	 892.320623	 300.314967	-101.475505	198.839463	1.826494 
0.033300	 893.209979	 300.614284	-102.074139	198.540146	1.827619 
0.033400	 894.090014	 300.910465	-102.666499	198.243965	1.828729 
0.033500	 894.960463	 301.203419	-103.252407	197.951011	1.829824 
0.033600	 895.821068	 301.493059	-103.831689	197.661370	1.830902 
0.033700	 896.671580	 301.779303	-104.404177	197.375126	1.831965 
0.033800	 897.511757	 302.062069	-104.969709	197.092361	1.833011 
0.033900	 898.341366	 302.341278	-105.528127	196.813151	1.834040 
0.034000	 899.160181	 302.616855	-106.079280	196.537575	1.835054 
0.034100	 899.967987	 302.888726	-106.623022	196.265704	1.836050 
0.034200	 900.764573	 303.156821	-107.159212	195.997609	1.837030 
0.034300	 901.549740	 303.421073	-107.687716	195.733357	1.837992 
0.034400	 902.323293	 303.681416	-108.208402	195.473014	1.838937 
0.034500	 903.085049	 303.937789	-108.721148	195.216641	1.839865 
0.034600	 903.834832	 304.190132	-109.225834	194.964298	1.840776 
0.034700	 904.572471	 304.438388	-109.722346	194.716042	1.841670 
0.034800	 905.297808	 304.682504	-110.210578	194.471926	1.842545 
0.034900	 906.010689	 304.922427	-110.690425	194.232002	1.843404 
0.035000	 906.710970	 305.158110	-111.161791	193.996319	1.844244 
0.035100	 907.398514	 305.389507	-111.624584	193.764923	1.845067 
0.035200	 908.073194	 305.616574	-112.078718	193.537856	1.845873 
0.035300	 908.734889	 305.839271	-112.524112	193.315159	1.846660 
0.035400	 909.383486	 306.057559	-112.960689	193.096870	1.847430 
0.035500	 910.018881	 306.271405	-113.388380	192.883025	1.848182 
0.035600	 910.640977	 306.480774	-113.807118	192.673656	1.848917 
0.035700	 911.249685	 306.685638	-114.216846	192.468792	1.849633 
0.035800	 911.844923	 306.885968	-114.617507	192.268461	1.850333 
0.035900	 912.426619	 307.081741	-115.009052	192.072689	1.851014 
0.036000	 912.994707	 307.272934	-115.391438	191.881496	1.851678 
0.036100	 913.549129	 307.459527	-115.764624	191.694903	1.852324 
0.036200	 914.089833	 307.641504	-116.128578	191.512926	1.852953 
0.036300	 914.616778	 307.818850	-116.483270	191.335580	1.853564 
0.036400	 915.129927	 307.991552	-116.828675	191.162877	1.854158 
0.036500	 915.629251	 308.159603	-117.164775	190.994827	1.854735 
0.036600	 916.114730	 308.322993	-117.491556	190.831437	1.855295 
0.036700	 916.586349	 308.481719	-117.809008	190.672711	1.855837 
0.036800	 917.044101	 308.635778	-118.117125	190.518652	1.856363 
0.036900	 917.487987	 308.785169	-118.415909	190.369261	1.856871 
0.037000	 917.918011	 308.929896	-118.705362	190.224534	1.857363 
0.037100	 918.334187	 309.069962	-118.985494	190.084468	1.857838 
0.037200	 918.736535	 309.205374	-119.256319	189.949056	1.858297 
0.037300	 919.125079	 309.336141	-119.517852	189.818289	1.858739 
0.037400	 919.499853	 309.462273	-119.770116	189.692157	1.859165 
0.037500	 919.860894	 309.583783	-120.013136	189.570647	1.859575 
0.037600	 920.208245	 309.700686	-120.246941	189.453745	1.859969 
0.037700	 920.541956	 309.812998	-120.471565	189.341433	1.860347 
0.037800	 920.862081	 309.920738	-120.687045	189.233693	1.860709 
0.037900	 921.168682	 310.023926	-120.893421	189.130505	1.861055 
0.038000	 921.461823	 310.122584	-121.090737	189.031847	1.861387 
0.038100	 921.741574	 310.216735	-121.279040	188.937695	1.861703 
0.038200	 922.008011	 310.306406	-121.458381	188.848025	1.862004 
0.038300	 922.261213	 310.391622	-121.628814	188.762808	1.862290 
0.038400	 922.501264	 310.472413	-121.790395	188.682018	1.862561 
0.038500	 922.728252	 310.548807	-121.943183	188.605624	1.862817 
0.038600	 922.942271	 310.620836	-122.087241	188.533595	1.863060 
0.038700	 923.143415	 310.688532	-122.222633	188.465899	1.863288 
0.038800	 923.331786	 310.751929	-122.349427	188.402502	1.863501 
0.038900	 923.507485	 310.811062	-122.467692	188.343370	1.863701 
0.039000	 923.670620	 310.865966	-122.577500	188.288466	1.863888 
0.039100	 923.821301	 310.916678	-122.678925	188.237753	1.864060 
0.039200	 923.959640	 310.963237	-122.772042	188.191195	1.864220 
0.039300	 924.085753	 311.005681	-122.856930	188.148751	1.864366 
0.039400	 924.199758	 311.044049	-122.933667	188.110382	1.864499 
0.039500	 924.301774	 311.078384	-123.002335	188.076048	1.864620 
0.039600	 924.391925	 311.108724	-123.063017	188.045708	1.864727 
0.039700	 924.470336	 311.135114	-123.115796	188.019318	1.864823 
0.039800	 924.537132	 311.157595	-123.160757	187.996838	1.864906 
0.039900	 924.592443	 311.176210	-123.197987	187.978222	1.864977 
0.040000	 924.636399	 311.191003	-123.227574	187.963429	1.865036 
0.040100	 924.669131	 311.202019	-123.249606	187.952413	1.865083 
0.040200	 924.690771	 311.209302	-123.264172	187.945130	1.865119 
0.040300	 924.701454	 311.212898	-123.271363	187.941535	1.865143 
0.040400	 924.701315	 311.212851	-123.271270	187.941581	1.865156 
0.040500	 924.690490	 311.209208	-123.263983	187.945225	1.865158 
0.040600	 924.669116	 311.202014	-123.249596	187.952419	1.865150 
0.040700	 924.637329	 311.191316	-123.228199	187.963117	1.865130 
0.040800	 924.595268	 311.177160	-123.199888	187.977273	1.865100 
0.040900	 924.543072	 311.159593	-123.164754	187.994840	1.865060 
0.041000	 924.480878	 311.138662	-123.122891	188.015771	1.865010 
0.041100	 924.408828	 311.114413	-123.074393	188.040020	1.864950 
0.041200	 924.327058	 311.086893	-123.019353	188.067540	1.864880 
0.041300	 924.235710	 311.056149	-122.957865	188.098284	1.864800 
0.041400	 924.134922	 311.022229	-122.890024	188.132205	1.864711 
0.041500	 924.024833	 310.985178	-122.815922	188.169256	1.864613 
0.041600	 923.905583	 310.945043	-122.735653	188.209390	1.864505 
0.041700	 923.777310	 310.901873	-122.649311	188.252561	1.864389 
0.041800	 923.640153	 310.855712	-122.556990	188.298722	1.864263 
0.041900	 923.494251	 310.806608	-122.458781	188.347826	1.864129 
0.042000	 923.339741	 310.754606	-122.354779	188.399828	1.863987 
0.042100	 923.176760	 310.699754	-122.245075	188.454680	1.863836 
0.042200	 923.005446	 310.642098	-122.129762	188.512336	1.863677 
0.042300	 922.825935	 310.581682	-122.008931	188.572752	1.863510 
0.042400	 922.638362	 310.518554	-121.882674	188.635880	1.863336 
0.042500	 922.442864	 310.452758	-121.751082	188.701676	1.863153 
0.042600	 922.239574	 310.384340	-121.614245	188.770095	1.862963 
0.042700	 922.028627	 310.313345	-121.472255	188.841090	1.862765 
0.042800	 921.810156	 310.239817	-121.325199	188.914618	1.862561 
0.042900	 921.584293	 310.163802	-121.173169	188.990633	1.862349 
0.043000	 921.351170	 310.085343	-121.016251	189.069092	1.862130 
0.043100	 921.110918	 310.004485	-120.854535	189.149950	1.861904 
0.043200	 920.863668	 309.921272	-120.688109	189.233163	1.861672 
0.043300	 920.609549	 309.835747	-120.517058	189.318688	1.861432 
0.043400	 920.348690	 309.747953	-120.341471	189.406482	1.861187 
0.043500	 920.081219	 309.657935	-120.161434	189.496501	1.860935 
0.043600	 919.807262	 309.565733	-119.977031	189.588702	1.860677 
0.043700	 919.526948	 309.471392	-119.788349	189.683043	1.860413 
0.043800	 919.240401	 309.374953	-119.595471	189.779482	1.860143 
0.043900	 918.947746	 309.276459	-119.398482	189.877977	1.859867 
0.044000	 918.649107	 309.175950	-119.197465	189.978485	1.859586 
0.044100	 918.344608	 309.073470	-118.992504	190.080966	1.859299 
0.044200	 918.034372	 308.969058	-118.783680	190.185378	1.859006 
0.044300	 917.718519	 308.862756	-118.571077	190.291679	1.858709 
0.044400	 917.397172	 308.754605	-118.354775	190.399831	1.858406 
0.044500	 917.070451	 308.644646	-118.134855	190.509790	1.858098 
0.044600	 916.738475	 308.532917	-117.911399	190.621519	1.857785 
0.044700	 916.401363	 308.419461	-117.684486	190.734975	1.857467 
0.044800	 916.059234	 308.304316	-117.454195	190.850120	1.857145 
0.044900	 915.712206	 308.187521	-117.220607	190.966915	1.856818 
0.045000	 915.360394	 308.069117	-116.983799	191.085319	1.856486 
0.045100	 915.003916	 307.949143	-116.743850	191.205293	1.856150 
0.045200	 914.642887	 307.827637	-116.500838	191.326799	1.855810 
0.045300	 914.277423	 307.704638	-116.254840	191.449798	1.855465 
0.045400	 913.907637	 307.580185	-116.005933	191.574252	1.855117 
0.045500	 913.533643	 307.454315	-115.754194	191.700121	1.854765 
0.045600	 913.155555	 307.327068	-115.499699	191.827369	1.854408 
0.045700	 912.773485	 307.198480	-115.242524	191.955956	1.854048 
0.045800	 912.387546	 307.068591	-114.982745	192.085846	1.853684 
0.045900	 911.997850	 306.937436	-114.720436	192.217000	1.853317 
0.046000	 911.604506	 306.805054	-114.455672	192.349382	1.852947 
0.046100	 911.207626	 306.671483	-114.188528	192.482954	1.852572 
0.046200	 910.807320	 306.536758	-113.919078	192.617679	1.852195 
0.046300	 910.403698	 306.400917	-113.647396	192.753520	1.851815 
0.046400	 909.996868	 306.263996	-113.373555	192.890441	1.851431 
0.046500	 909.586940	 306.126033	-113.097628	193.028404	1.851045 
0.046600	 909.174021	 305.987063	-112.819688	193.167374	1.850655 
0.046700	 908.758220	 305.847123	-112.539809	193.307314	1.850263 
0.046800	 908.339644	 305.706249	-112.258061	193.448188	1.849868 
0.046900	 907.918400	 305.564477	-111.974517	193.589960	1.849471 
0.047000	 907.494594	 305.421843	-111.689249	193.732594	1.849071 
0.047100	 907.068333	 305.278383	-111.402328	193.876055	1.848669 
0.047200	 906.639722	 305.134132	-111.113826	194.020306	1.848264 
0.047300	 906.208866	 304.989125	-110.823813	194.165312	1.847857 
0.047400	 905.775872	 304.843398	-110.532359	194.311039	1.847448 
0.047500	 905.340842	 304.696987	-110.239537	194.457450	1.847037 
0.047600	 904.903882	 304.549926	-109.945414	194.604512	1.846624 
0.047700	 904.465095	 304.402250	-109.650062	194.752188	1.846209 
0.047800	 904.024584	 304.253994	-109.353550	194.900444	1.845792 
0.047900	 903.582453	 304.105192	-109.055947	195.049245	1.845374 
0.048000	 903.138804	 303.955880	-108.757322	195.198558	1.844953 
0.048100	 902.693739	 303.806091	-108.457745	195.348347	1.844532 
0.048200	 902.247360	 303.655860	-108.157282	195.498578	1.844109 
0.048300	 901.799768	 303.505221	-107.856004	195.649217	1.843684 
0.048400	 901.351065	 303.354208	-107.553977	195.800230	1.843258 
0.048500	 900.901350	 303.202854	-107.251270	195.951584	1.842831 
0.048600	 900.450724	 303.051193	-106.947949	196.103245	1.842403 
0.048700	 899.999286	 302.899260	-106.644081	196.255179	1.841974 
0.048800	 899.547135	 302.747086	-106.339734	196.407352	1.841543 
0.048900	 899.094370	 302.594706	-106.034973	196.559733	1.841112 
0.049000	 898.641089	 302.442152	-105.729865	196.712287	1.840680 
0.049100	 898.187388	 302.289457	-105.424475	196.864982	1.840247 
0.049200	 897.733366	 302.136653	-105.118868	197.017785	1.839814 
0.049300	 897.279119	 301.983774	-104.813109	197.170665	1.839380 
0.049400	 896.824742	 301.830851	-104.507263	197.323588	1.838945 
0.049500	 896.370330	 301.677916	-104.201394	197.476522	1.838510 
0.049600	 895.915977	 301.525002	-103.895565	197.629437	1.838074 
0.049700	 895.461779	 301.372139	-103.589839	197.782300	1.837639 
0.049800	 895.007827	 301.219359	-103.284280	197.935080	1.837203 
0.049900	 894.554214	 301.066693	-102.978948	198.087745	1.836766 
0.050000	 894.101031	 300.914173	-102.673906	198.240266	1.836330 
0.050100	 893.648370	 300.761827	-102.369216	198.392611	1.835894 
0.050200	 893.196321	 300.609688	-102.064937	198.544751	1.835457 
0.050300	 892.744972	 300.457784	-101.761129	198.696655	1.835021 
0.050400	 892.294411	 300.306146	-101.457852	198.848293	1.834585 
0.050500	 891.844727	 300.154802	-101.155165	198.999637	1.834149 
0.050600	 891.396005	 300.003783	-100.853126	199.150656	1.833714 
0.050700	 890.948331	 299.853116	-100.551792	199.301323	1.833279 
0.050800	 890.501790	 299.702830	-100.251221	199.451609	1.832844 
0.050900	 890.056463	 299.552953	-99.951467	199.601486	1.832410 
0.051000	 889.612435	 299.403513	-99.652587	199.750926	1.831976 
0.051100	 889.169785	 299.254537	-99.354635	199.899902	1.831543 
0.051200	 888.728594	 299.106052	-99.057665	200.048387	1.831111 
0.051300	 888.288940	 298.958084	-98.761729	200.196355	1.830680 
0.051400	 887.850902	 298.810660	-98.466881	200.343779	1.830249 
0.051500	 887.414554	 298.663805	-98.173171	200.490634	1.829819 
0.051600	 886.979972	 298.517545	-97.880650	200.636895	1.829390 
0.051700	 886.547230	 298.371903	-97.589367	200.782536	1.828962 
0.051800	 886.116399	 298.226905	-97.299370	200.927535	1.828535 
0.051900	 885.687551	 298.082574	-97.010708	201.071866	1.828109 
0.052000	 885.260754	 297.938933	-96.723427	201.215506	1.827684 
0.052100	 884.836077	 297.796006	-96.437572	201.358434	1.827261 
0.052200	 884.413585	 297.653814	-96.153188	201.500626	1.826838 
0.052300	 883.993343	 297.512380	-95.870319	201.642060	1.826417 
0.052400	 883.575414	 297.371724	-95.589008	201.782716	1.825998 
0.052500	 883.159861	 297.231867	-95.309294	201.922573	1.825579 
0.052600	 882.746741	 297.092829	-95.031219	202.061610	1.825163 
0.052700	 882.336114	 296.954631	-94.754822	202.199809	1.824747 
0.052800	 881.928036	 296.817290	-94.480141	202.337149	1.824333 
0.052900	 881.522562	 296.680826	-94.207212	202.473614	1.823921 
0.053000	 881.119743	 296.545255	-93.936071	202.609184	1.823510 
0.053100	 880.719632	 296.410596	-93.666752	202.743844	1.823101 
0.053200	 880.322278	 296.276864	-93.399289	202.877576	1.822694 
0.053300	 879.927727	 296.144076	-93.133713	203.010364	1.822289 
0.053400	 879.536026	 296.012247	-92.870055	203.142193	1.821885 
0.053500	 879.147217	 295.881392	-92.608344	203.273048	1.821483 
0.053600	 878.761343	 295.751524	-92.348608	203.402916	1.821082 
0.053700	 878.378443	 295.622657	-92.090874	203.531783	1.820684 
0.053800	 877.998555	 295.494804	-91.835167	203.659636	1.820288 
0.053900	 877.621715	 295.367976	-91.581512	203.786464	1.819893 
0.054000	 877.247956	 295.242186	-91.329932	203.912254	1.819501 
0.054100	 876.877310	 295.117443	-91.080446	204.036997	1.819110 
0.054200	 876.509808	 294.993759	-90.833077	204.160681	1.818721 
0.054300	 876.145477	 294.871141	-90.587842	204.283299	1.818335 
0.054400	 875.784343	 294.749600	-90.344759	204.404840	1.817950 
0.054500	 875.426430	 294.629142	-90.103844	204.525298	1.817568 
0.054600	 875.071760	 294.509776	-89.865112	204.644664	1.817188 
0.054700	 874.720352	 294.391508	-89.628576	204.762932	1.816809 
0.054800	 874.372224	 294.274344	-89.394248	204.880096	1.816433 
0.054900	 874.027393	 294.158289	-89.162139	204.996151	1.816059 
0.055000	 873.685872	 294.043349	-88.932257	205.111091	1.815688 
0.055100	 873.347673	 293.929526	-88.704612	205.224914	1.815318 
0.055200	 873.012807	 293.816825	-88.479210	205.337615	1.814951 
0.055300	 872.681280	 293.705248	-88.256056	205.449192	1.814586 
0.055400	 872.353099	 293.594797	-88.035155	205.559643	1.814223 
0.055500	 872.028269	 293.485474	-87.816508	205.668966	1.813862 
0.055600	 871.706791	 293.377279	-87.600118	205.777161	1.813503 
0.055700	 871.388667	 293.270213	-87.385985	205.884227	1.813147 
0.055800	 871.073894	 293.164274	-87.174108	205.990166	1.812793 
0.055900	 870.762469	 293.059463	-86.964485	206.094977	1.812441 
0.056000	 870.454387	 292.955776	-86.757113	206.198664	1.812092 
0.056100	 870.149642	 292.853213	-86.551986	206.301227	1.811744 
0.056200	 869.848225	 292.751770	-86.349099	206.402671	1.811399 
0.056300	 869.550126	 292.651443	-86.148445	206.502997	1.811056 
0.056400	 869.255333	 292.552228	-85.950017	206.602212	1.810716 
0.056500	 868.963831	 292.454122	-85.753804	206.700318	1.810377 
0.056600	 868.675607	 292.357119	-85.559798	206.797321	1.810041 
0.056700	 868.390644	 292.261213	-85.367986	206.893227	1.809707 
0.056800	 868.108922	 292.166398	-85.178357	206.988042	1.809376 
0.056900	 867.830424	 292.072668	-84.990896	207.081772	1.809046 
0.057000	 867.555126	 291.980016	-84.805591	207.174424	1.808719 
0.057100	 867.283008	 291.888433	-84.622426	207.266007	1.808393 
0.057200	 867.014046	 291.797912	-84.441384	207.356528	1.808070 
0.057300	 866.748213	 291.708445	-84.262450	207.445995	1.807750 
0.057400	 866.485485	 291.620022	-84.085605	207.534418	1.807431 
0.057500	 866.225832	 291.532635	-83.910830	207.621805	1.807114 
0.057600	 865.969228	 291.446273	-83.738107	207.708166	1.806800 
0.057700	 865.715641	 291.360928	-83.567415	207.793512	1.806487 
0.057800	 865.465041	 291.276587	-83.398734	207.877853	1.806177 
0.057900	 865.217397	 291.193241	-83.232042	207.961199	1.805869 
0.058000	 864.972674	 291.110878	-83.067317	208.043561	1.805563 
0.058100	 864.730841	 291.029488	-82.904536	208.124952	1.805258 
0.058200	 864.491862	 290.949058	-82.743677	208.205381	1.804956 
0.058300	 864.255701	 290.869577	-82.584715	208.284862	1.804656 
0.058400	 864.022323	 290.791033	-82.427626	208.363407	1.804358 
0.058500	 863.791691	 290.713413	-82.272385	208.441027	1.804061 
0.058600	 863.563768	 290.636704	-82.118968	208.517736	1.803767 
0.058700	 863.338515	 290.560894	-81.967348	208.593546	1.803474 
0.058800	 863.115893	 290.485970	-81.817499	208.668470	1.803184 
0.058900	 862.895865	 290.411918	-81.669396	208.742522	1.802895 
0.059000	 862.678390	 290.338726	-81.523011	208.815714	1.802608 
0.059100	 862.463428	 290.266379	-81.378318	208.888061	1.802323 
0.059200	 862.250940	 290.194865	-81.235290	208.959575	1.802040 
0.059300	 862.040884	 290.124170	-81.093899	209.030270	1.801758 
0.059400	 861.833219	 290.054279	-80.954118	209.100161	1.801478 
0.059500	 861.627905	 289.985180	-80.815920	209.169260	1.801200 
0.059600	 861.424901	 289.916858	-80.679276	209.237582	1.800923 
0.059700	 861.224165	 289.849299	-80.544158	209.305141	1.800649 
0.059800	 861.025656	 289.782490	-80.410540	209.371950	1.800375 
0.059900	 860.829333	 289.716416	-80.278393	209.438023	1.800104 
0.060000	 860.635154	 289.651064	-80.147689	209.503375	1.799834 
0.060100	 860.443077	 289.586420	-80.018400	209.568020	1.799565 
0.060200	 860.253062	 289.522469	-79.890499	209.631970	1.799298 
0.060300	 860.065068	 289.459199	-79.763958	209.695241	1.799033 
0.060400	 859.879053	 289.396595	-79.638750	209.757845	1.798769 
0.060500	 859.694977	 289.334643	-79.514846	209.819797	1.798507 
0.060600	 859.512799	 289.273330	-79.392221	209.881109	1.798246 
0.060700	 859.332480	 289.212643	-79.270846	209.941797	1.797986 
0.060800	 859.153979	 289.152567	-79.150695	210.001872	1.797728 
0.060900	 858.977257	 289.093091	-79.031742	210.061349	1.797471 
0.061000	 858.802274	 289.034199	-78.913959	210.120240	1.797216 
0.061100	 858.628992	 288.975881	-78.797322	210.178559	1.796962 
0.061200	 858.457373	 288.918121	-78.681803	210.236318	1.796709 
0.061300	 858.287379	 288.860909	-78.567378	210.293531	1.796457 
0.061400	 858.118972	 288.804231	-78.454022	210.350209	1.796207 
0.061500	 857.952115	 288.748074	-78.341709	210.406365	1.795958 
0.061600	 857.786772	 288.692427	-78.230415	210.462012	1.795710 
0.061700	 857.622907	 288.637278	-78.120116	210.517162	1.795464 
0.061800	 857.460485	 288.582614	-78.010788	210.571826	1.795219 
0.061900	 857.299471	 288.528424	-77.902408	210.626016	1.794974 
0.062000	 857.139832	 288.474696	-77.794953	210.679743	1.794732 
0.062100	 856.981532	 288.421420	-77.688400	210.733020	1.794490 
0.062200	 856.824540	 288.368583	-77.582727	210.785856	1.794249 
0.062300	 856.668824	 288.316176	-77.477913	210.838263	1.794010 
0.062400	 856.514351	 288.264187	-77.373936	210.890252	1.793771 
0.062500	 856.361091	 288.212607	-77.270775	210.941832	1.793534 
0.062600	 856.209013	 288.161424	-77.168410	210.993015	1.793298 
0.062700	 856.058089	 288.110630	-77.066821	211.043809	1.793062 
0.062800	 855.908287	 288.060214	-76.965988	211.094225	1.792828 
0.062900	 855.759582	 288.010166	-76.865893	211.144273	1.792595 
0.063000	 855.611944	 287.960478	-76.766517	211.193961	1.792363 
0.063100	 855.465348	 287.911140	-76.667841	211.243299	1.792132 
0.063200	 855.319766	 287.862144	-76.569848	211.292295	1.791902 
0.063300	 855.175173	 287.813480	-76.472521	211.340959	1.791673 
0.063400	 855.031544	 287.765141	-76.375844	211.389298	1.791445 
0.063500	 854.888856	 287.717119	-76.279798	211.437320	1.791218 
0.063600	 854.747083	 287.669405	-76.184370	211.485034	1.790992 
0.063700	 854.606205	 287.621991	-76.089543	211.532448	1.790767 
0.063800	 854.466198	 287.574871	-75.995303	211.579568	1.790543 
0.063900	 854.327040	 287.528037	-75.901635	211.626402	1.790320 
0.064000	 854.188712	 287.481482	-75.808525	211.672957	1.790098 
0.064100	 854.051192	 287.435199	-75.715959	211.719240	1.789877 
0.064200	 853.914461	 287.389181	-75.623923	211.765258	1.789657 
0.064300	 853.778499	 287.343423	-75.532407	211.811016	1.789437 
0.064400	 853.643290	 287.297917	-75.441396	211.856522	1.789219 
0.064500	 853.508814	 287.252659	-75.350879	211.901780	1.789002 
0.064600	 853.375054	 287.207641	-75.260844	211.946798	1.788785 
0.064700	 853.241994	 287.162859	-75.171280	211.991580	1.788570 
0.064800	 853.109618	 287.118308	-75.082176	212.036132	1.788355 
0.064900	 852.977910	 287.073981	-74.993522	212.080459	1.788142 
0.065000	 852.846855	 287.029873	-74.905308	212.124566	1.787929 
0.065100	 852.716439	 286.985981	-74.817523	212.168458	1.787718 
0.065200	 852.586647	 286.942299	-74.730159	212.212140	1.787507 
0.065300	 852.457467	 286.898823	-74.643206	212.255616	1.787297 
0.065400	 852.328884	 286.855548	-74.556656	212.298891	1.787089 
0.065500	 852.200888	 286.812470	-74.470500	212.341969	1.786881 
0.065600	 852.073464	 286.769585	-74.384730	212.384854	1.786674 
0.065700	 851.946603	 286.726889	-74.299339	212.427550	1.786468 
0.065800	 851.820292	 286.684378	-74.214317	212.470061	1.786263 
0.065900	 851.694520	 286.642049	-74.129659	212.512390	1.786059 
0.066000	 851.569278	 286.599898	-74.045357	212.554541	1.785856 
0.066100	 851.444554	 286.557922	-73.961405	212.596517	1.785654 
0.066200	 851.320340	 286.516117	-73.877795	212.638322	1.785453 
0.066300	 851.196625	 286.474480	-73.794521	212.679959	1.785253 
0.066400	 851.073401	 286.433009	-73.711578	212.721430	1.785054 
0.066500	 850.950659	 286.391699	-73.628959	212.762740	1.784856 
0.066600	 850.828390	 286.350549	-73.546659	212.803890	1.784659 
0.066700	 850.706586	 286.309555	-73.464671	212.844884	1.784463 
0.066800	 850.585238	 286.268715	-73.382991	212.885724	1.784268 
0.066900	 850.464339	 286.228026	-73.301612	212.926413	1.784074 
0.067000	 850.343882	 286.187485	-73.220531	212.966954	1.783881 
0.067100	 850.223859	 286.147091	-73.139742	213.007348	1.783690 
0.067200	 850.104262	 286.106840	-73.059241	213.047599	1.783499 
0.067300	 849.985085	 286.066730	-72.979021	213.087709	1.783309 
0.067400	 849.866320	 286.026759	-72.899080	213.127680	1.783120 
0.067500	 849.747962	 285.986925	-72.819412	213.167514	1.782932 
0.067600	 849.630003	 285.947226	-72.740012	213.207213	1.782745 
0.067700	 849.512437	 285.907658	-72.660877	213.246781	1.782560 
0.067800	 849.395257	 285.868221	-72.582003	213.286218	1.782375 
0.067900	 849.278458	 285.828911	-72.503384	213.325528	1.782191 
0.068000	 849.162032	 285.789728	-72.425016	213.364711	1.782009 
0.068100	 849.045974	 285.750668	-72.346897	213.403771	1.781827 
0.068200	 848.930278	 285.711730	-72.269020	213.442709	1.781647 
0.068300	 848.814937	 285.672911	-72.191383	213.481528	1.781467 
0.068400	 848.699946	 285.634210	-72.113981	213.520229	1.781289 
0.068500	 848.585298	 285.595625	-72.036811	213.558814	1.781111 
0.068600	 848.470987	 285.557153	-71.959867	213.597286	1.780935 
0.068700	 848.357008	 285.518793	-71.883147	213.635646	1.780760 
0.068800	 848.243355	 285.480542	-71.806646	213.673897	1.780586 
0.068900	 848.130021	 285.442399	-71.730359	213.712040	1.780413 
0.069000	 848.017000	 285.404361	-71.654284	213.750078	1.780241 
0.069100	 847.904287	 285.366427	-71.578416	213.788012	1.780070 
0.069200	 847.791875	 285.328594	-71.502750	213.825845	1.779900 
0.069300	 847.679758	 285.290861	-71.427283	213.863578	1.779731 
0.069400	 847.567929	 285.253225	-71.352010	213.901214	1.779563 
0.069500	 847.456384	 285.215683	-71.276928	213.938756	1.779397 
0.069600	 847.345115	 285.178235	-71.202031	213.976204	1.779231 
0.069700	 847.234116	 285.140878	-71.127316	214.013561	1.779066 
0.069800	 847.123380	 285.103609	-71.052779	214.050830	1.778903 
0.069900	 847.012901	 285.066427	-70.978415	214.088012	1.778740 
0.070000	 846.902673	 285.029329	-70.904219	214.125110	1.778578 
0.070100	 846.792689	 284.992313	-70.830188	214.162126	1.778418 
0.070200	 846.682942	 284.955377	-70.756316	214.199062	1.778258 
0.070300	 846.573425	 284.918519	-70.682599	214.235920	1.778100 
0.070400	 846.464132	 284.881736	-70.609033	214.272703	1.777942 
0.070500	 846.355055	 284.845025	-70.535612	214.309414	1.777786 
0.070600	 846.246187	 284.808386	-70.462332	214.346053	1.777630 
0.070700	 846.137523	 284.771814	-70.389189	214.382625	1.777476 
0.070800	 846.029053	 284.735308	-70.316177	214.419131	1.777322 
0.070900	 845.920771	 284.698865	-70.243291	214.455574	1.777170 
0.071000	 845.812670	 284.662483	-70.170527	214.491956	1.777018 
0.071100	 845.704742	 284.626159	-70.097880	214.528280	1.776867 
0.071200	 845.596980	 284.589892	-70.025344	214.564547	1.776717 
0.071300	 845.489376	 284.553677	-69.952915	214.600762	1.776568 
0.071400	 845.381922	 284.517513	-69.880586	214.636926	1.776420 
0.071500	 845.274611	 284.481397	-69.808354	214.673042	1.776273 
0.071600	 845.167435	 284.445326	-69.736213	214.709113	1.776127 
0.071700	 845.060387	 284.409298	-69.664158	214.745141	1.775982 
0.071800	 844.953457	 284.373311	-69.592183	214.781128	1.775837 
0.071900	 844.846640	 284.337361	-69.520283	214.817078	1.775693 
0.072000	 844.739925	 284.301446	-69.448452	214.852993	1.775551 
0.072100	 844.633306	 284.265562	-69.376686	214.888877	1.775408 
0.072200	 844.526775	 284.229709	-69.304978	214.924730	1.775267 
0.072300	 844.420322	 284.193881	-69.233324	214.960557	1.775127 
0.072400	 844.313941	 284.158078	-69.161718	214.996361	1.774987 
0.072500	 844.207622	 284.122296	-69.090154	215.032143	1.774848 
0.072600	 844.101359	 284.086533	-69.018627	215.067906	1.774710 
0.072700	 843.995142	 284.050785	-68.947131	215.103654	1.774572 
0.072800	 843.888963	 284.015050	-68.875661	215.139389	1.774435 
0.072900	 843.782814	 283.979325	-68.804211	215.175114	1.774299 
0.073000	 843.676687	 283.943608	-68.732776	215.210831	1.774164 
0.073100	 843.570574	 283.907895	-68.661350	215.246544	1.774029 
0.073200	 843.464467	 283.872184	-68.589928	215.282255	1.773895 
0.073300	 843.358357	 283.836472	-68.518504	215.317967	1.773761 
0.073400	 843.252235	 283.800756	-68.447073	215.353683	1.773628 
0.073500	 843.146095	 283.765034	-68.375629	215.389405	1.773496 
0.073600	 843.039928	 283.729303	-68.304167	215.425136	1.773364 
0.073700	 842.933726	 283.693560	-68.232681	215.460879	1.773233 
0.073800	 842.827480	 283.657802	-68.161166	215.496637	1.773102 
0.073900	 842.721183	 283.622028	-68.089616	215.532411	1.772972 
0.074000	 842.614827	 283.586233	-68.018027	215.568206	1.772842 
0.074100	 842.508403	 283.550416	-67.946392	215.604023	1.772713 
0.074200	 842.401905	 283.514573	-67.874707	215.639866	1.772584 
0.074300	 842.295324	 283.478703	-67.802967	215.675736	1.772456 
0.074400	 842.188653	 283.442802	-67.731166	215.711637	1.772328 
0.074500	 842.081884	 283.406869	-67.659298	215.747570	1.772200 
0.074600	 841.975010	 283.370899	-67.587360	215.783539	1.772073 
0.074700	 841.868023	 283.334892	-67.515346	215.819547	1.771946 
0.074800	 841.760915	 283.298845	-67.443251	215.855594	1.771820 
0.074900	 841.653680	 283.262754	-67.371070	215.891685	1.771693 
0.075000	 841.546311	 283.226619	-67.298798	215.927820	1.771568 
0.075100	 841.438800	 283.190435	-67.226432	215.964004	1.771442 
0.075200	 841.331140	 283.154202	-67.153965	216.000237	1.771317 
0.075300	 841.223325	 283.117916	-67.081394	216.036523	1.771192 
0.075400	 841.115348	 283.081576	-67.008713	216.072863	1.771067 
0.075500	 841.007202	 283.045179	-66.935919	216.109260	1.770942 
0.075600	 840.898882	 283.008723	-66.863007	216.145716	1.770818 
0.075700	 840.790379	 282.972206	-66.789973	216.182233	1.770694 
0.075800	 840.681690	 282.935626	-66.716813	216.218813	1.770570 
0.075900	 840.572806	 282.898981	-66.643522	216.255458	1.770446 
0.076000	 840.463723	 282.862268	-66.570097	216.292171	1.770322 
0.076100	 840.354434	 282.825487	-66.496534	216.328952	1.770199 
0.076200	 840.244934	 282.788634	-66.422829	216.365805	1.770075 
0.076300	 840.135218	 282.751708	-66.348978	216.402731	1.769952 
0.076400	 840.025280	 282.714708	-66.274977	216.439731	1.769828 
0.076500	 839.915114	 282.677631	-66.200824	216.476808	1.769705 
0.076600	 839.804716	 282.640476	-66.126514	216.513963	1.769582 
0.076700	 839.694082	 282.603242	-66.052044	216.551197	1.769458 
0.076800	 839.583205	 282.565925	-65.977412	216.588513	1.769335 
0.076900	 839.472081	 282.528526	-65.902614	216.625913	1.769212 
0.077000	 839.360707	 282.491043	-65.827647	216.663396	1.769089 
0.077100	 839.249077	 282.453473	-65.752508	216.700966	1.768966 
0.077200	 839.137188	 282.415816	-65.677194	216.738623	1.768842 
0.077300	 839.025036	 282.378071	-65.601703	216.776368	1.768719 
0.077400	 838.912616	 282.340235	-65.526032	216.814204	1.768595 
0.077500	 838.799925	 282.302309	-65.450179	216.852130	1.768472 
0.077600	 838.686960	 282.264290	-65.374141	216.890149	1.768348 
0.077700	 838.573717	 282.226177	-65.297916	216.928262	1.768224 
0.077800	 838.460193	 282.187970	-65.221502	216.966469	1.768101 
0.077900	 838.346385	 282.149668	-65.144896	217.004771	1.767977 
0.078000	 838.232290	 282.111268	-65.068098	217.043171	1.767852 
0.078100	 838.117906	 282.072772	-64.991105	217.081667	1.767728 
0.078200	 838.003229	 282.034177	-64.913914	217.120262	1.767604 
0.078300	 837.888258	 281.995483	-64.836526	217.158956	1.767479 
0.078400	 837.772990	 281.956688	-64.758938	217.197750	1.767354 
0.078500	 837.657423	 281.917794	-64.681149	217.236645	1.767229 
0.078600	 837.541555	 281.878798	-64.603157	217.275641	1.767104 
0.078700	 837.425384	 281.839700	-64.524961	217.314739	1.766979 
0.078800	 837.308909	 281.800500	-64.446561	217.353939	1.766853 
0.078900	 837.192129	 281.761197	-64.367955	217.393242	1.766727 
0.079000	 837.075041	 281.721790	-64.289142	217.432649	1.766601 
0.079100	 836.957645	 281.682280	-64.210121	217.472159	1.766475 
0.079200	 836.839940	 281.642666	-64.130893	217.511773	1.766348 
0.079300	 836.721924	 281.602947	-64.051455	217.551492	1.766221 
0.079400	 836.603597	 281.563124	-63.971808	217.591315	1.766094 
0.079500	 836.484959	 281.523195	-63.891952	217.631244	1.765966 
0.079600	 836.366009	 281.483162	-63.811885	217.671277	1.765839 
0.079700	 836.246746	 281.443024	-63.731608	217.711415	1.765711 
0.079800	 836.127170	 281.402780	-63.651121	217.751659	1.765582 
0.079900	 836.007282	 281.362431	-63.570423	217.792008	1.765454 
0.080000	 835.887081	 281.321977	-63.489514	217.832462	1.765325 
0.080100	 835.766568	 281.281417	-63.408396	217.873022	1.765196 
0.080200	 835.645742	 281.240753	-63.327067	217.913686	1.765066 
0.080300	 835.524605	 281.199983	-63.245528	217.954456	1.764936 
0.080400	 835.403156	 281.159109	-63.163779	217.995330	1.764806 
0.080500	 835.281397	 281.118131	-63.081822	218.036308	1.764675 
0.080600	 835.159328	 281.077048	-62.999656	218.077391	1.764545 
0.080700	 835.036950	 281.035861	-62.917282	218.118578	1.764413 
0.080800	 834.914264	 280.994570	-62.834701	218.159869	1.764282 
0.080900	 834.791271	 280.953176	-62.751913	218.201263	1.764150 
0.081000	 834.667973	 280.911679	-62.668920	218.242759	1.764018 
0.081100	 834.544370	 280.870080	-62.585722	218.284359	1.763885 
0.081200	 834.420464	 280.828379	-62.502320	218.326060	1.763752 
0.081300	 834.296257	 280.786577	-62.418715	218.367862	1.763619 
0.081400	 834.171750	 280.744673	-62.334908	218.409766	1.763485 
0.081500	 834.046945	 280.702670	-62.250900	218.451769	1.763351 
0.081600	 833.921844	 280.660566	-62.166693	218.493873	1.763217 
0.081700	 833.796448	 280.618364	-62.082288	218.536075	1.763082 
0.081800	 833.670760	 280.576063	-61.997686	218.578376	1.762947 
0.081900	 833.544781	 280.533664	-61.912889	218.620775	1.762812 
0.082000	 833.418514	 280.491168	-61.827897	218.663271	1.762676 
0.082100	 833.291960	 280.448576	-61.742712	218.705863	1.762540 
0.082200	 833.165123	 280.405888	-61.657337	218.748551	1.762403 
0.082300	 833.038004	 280.363105	-61.571772	218.791334	1.762266 
0.082400	 832.910605	 280.320229	-61.486018	218.834210	1.762129 
0.082500	 832.782930	 280.277259	-61.400079	218.877180	1.761992 
0.082600	 832.654980	 280.234197	-61.313955	218.920242	1.761854 
0.082700	 832.526759	 280.191043	-61.227648	218.963396	1.761715 
0.082800	 832.398268	 280.147799	-61.141159	219.006640	1.761577 
0.082900	 832.269511	 280.104465	-61.054492	219.049974	1.761437 
0.083000	 832.140490	 280.061043	-60.967646	219.093396	1.761298 
0.083100	 832.011208	 280.017532	-60.880625	219.136907	1.761158 
0.083200	 831.881668	 279.973935	-60.793431	219.180504	1.761018 
0.083300	 831.751873	 279.930252	-60.706064	219.224187	1.760878 
0.083400	 831.621825	 279.886483	-60.618528	219.267956	1.760737 
0.083500	 831.491528	 279.842631	-60.530823	219.311808	1.760596 
0.083600	 831.360984	 279.798696	-60.442953	219.355743	1.760454 
0.083700	 831.230196	 279.754679	-60.354918	219.399760	1.760312 
0.083800	 831.099168	 279.710581	-60.266722	219.443858	1.760170 
0.083900	 830.967903	 279.666403	-60.178366	219.488036	1.760027 
0.084000	 830.836403	 279.622146	-60.089852	219.532293	1.759884 
0.084100	 830.704672	 279.577811	-60.001183	219.576628	1.759741 
0.084200	 830.572713	 279.533400	-59.912360	219.621040	1.759597 
0.084300	 830.440529	 279.488912	-59.823386	219.665527	1.759453 
0.084400	 830.308123	 279.444350	-59.734262	219.710089	1.759309 
0.084500	 830.175499	 279.399715	-59.644991	219.754724	1.759164 
0.084600	 830.042659	 279.355007	-59.555575	219.799432	1.759019 
0.084700	 829.909607	 279.310228	-59.466016	219.844211	1.758874 
0.084800	 829.776345	 279.265378	-59.376317	219.889061	1.758728 
0.084900	 829.642878	 279.220459	-59.286479	219.933980	1.758582 
0.085000	 829.509209	 279.175472	-59.196505	219.978967	1.758436 
0.085100	 829.375340	 279.130418	-59.106396	220.024022	1.758290 
0.085200	 829.241275	 279.085297	-59.016155	220.069142	1.758143 
0.085300	 829.107017	 279.040112	-58.925785	220.114327	1.757996 
0.085400	 828.972569	 278.994863	-58.835287	220.159576	1.757848 
0.085500	 828.837935	 278.949551	-58.744663	220.204888	1.757700 
0.085600	 828.703117	 278.904178	-58.653916	220.250261	1.757552 
0.085700	 828.568120	 278.858744	-58.563048	220.295695	1.757404 
0.085800	 828.432946	 278.813250	-58.472061	220.341189	1.757255 
0.085900	 828.297597	 278.767698	-58.380957	220.386741	1.757106 
0.086000	 828.162079	 278.722088	-58.289738	220.432351	1.756957 
0.086100	 828.026393	 278.676423	-58.198406	220.478016	1.756807 
0.086200	 827.890542	 278.630702	-58.106964	220.523738	1.756657 
0.086300	 827.754531	 278.584926	-58.015413	220.569513	1.756507 
0.086400	 827.618362	 278.539098	-57.923756	220.615341	1.756357 
0.086500	 827.482037	 278.493217	-57.831995	220.661222	1.756206 
0.086600	 827.345561	 278.447285	-57.740132	220.707154	1.756055 
0.086700	 827.208936	 278.401303	-57.648168	220.753136	1.755904 
0.086800	 827.072165	 278.355272	-57.556106	220.799167	1.755752 
0.086900	 826.935251	 278.309193	-57.463948	220.845246	1.755601 
0.087000	 826.798198	 278.263067	-57.371696	220.891372	1.755449 
0.087100	 826.661007	 278.216895	-57.279351	220.937544	1.755296 
0.087200	 826.523682	 278.170678	-57.186917	220.983761	1.755144 
0.087300	 826.386226	 278.124416	-57.094394	221.030023	1.754991 
0.087400	 826.248642	 278.078112	-57.001784	221.076327	1.754838 
0.087500	 826.110932	 278.031765	-56.909091	221.122674	1.754685 
0.087600	 825.973100	 277.985377	-56.816314	221.169062	1.754531 
0.087700	 825.835147	 277.938948	-56.723457	221.215491	1.754378 
0.087800	 825.697078	 277.892480	-56.630521	221.261959	1.754224 
0.087900	 825.558893	 277.845973	-56.537508	221.308466	1.754070 
0.088000	 825.420597	 277.799429	-56.444419	221.355010	1.753915 
0.088100	 825.282191	 277.752848	-56.351257	221.401591	1.753761 
0.088200	 825.143679	 277.706231	-56.258022	221.448208	1.753606 
0.088300	 825.005062	 277.659579	-56.164718	221.494860	1.753451 
0.088400	 824.866343	 277.612892	-56.071345	221.541547	1.753296 
0.088500	 824.727526	 277.566172	-55.977906	221.588267	1.753140 
0.088600	 824.588611	 277.519420	-55.884401	221.635019	1.752985 
0.088700	 824.449602	 277.472636	-55.790832	221.681803	1.752829 
0.088800	 824.310500	 277.425820	-55.697202	221.728619	1.752673 
0.088900	 824.171308	 277.378975	-55.603510	221.775464	1.752517 
0.089000	 824.032029	 277.332100	-55.509760	221.822339	1.752360 
0.089100	 823.892665	 277.285196	-55.415952	221.869243	1.752204 
0.089200	 823.753217	 277.238264	-55.322089	221.916175	1.752047 
0.089300	 823.613688	 277.191305	-55.228170	221.963135	1.751890 
0.089400	 823.474079	 277.144319	-55.134198	222.010120	1.751733 
0.089500	 823.334394	 277.097307	-55.040175	222.057132	1.751576 
0.089600	 823.194633	 277.050270	-54.946100	222.104169	1.751418 
0.089700	 823.054799	 277.003208	-54.851977	222.151231	1.751261 
0.089800	 822.914894	 276.956122	-54.757805	222.198317	1.751103 
0.089900	 822.774920	 276.909013	-54.663587	222.245426	1.750945 
0.090000	 822.634877	 276.861881	-54.569323	222.292558	1.750787 
0.090100	 822.494769	 276.814727	-54.475015	222.339712	1.750628 
0.090200	 822.354597	 276.767551	-54.380664	222.386888	1.750470 
0.090300	 822.214362	 276.720355	-54.286270	222.434084	1.750311 
0.090400	 822.074066	 276.673137	-54.191836	222.481302	1.750153 
0.090500	 821.933711	 276.625900	-54.097361	222.528539	1.749994 
0.090600	 821.793298	 276.578644	-54.002848	222.575796	1.749835 
0.090700	 821.652829	 276.531368	-53.908297	222.623071	1.749675 
0.090800	 821.512305	 276.484074	-53.813708	222.670365	1.749516 
0.090900	 821.371727	 276.436762	-53.719084	222.717677	1.749357 
0.091000	 821.231097	 276.389432	-53.624425	222.765007	1.749197 
0.091100	 821.090417	 276.342085	-53.529731	222.812354	1.749037 
0.091200	 820.949686	 276.294722	-53.435004	222.859718	1.748877 
0.091300	 820.808907	 276.247342	-53.340244	222.907097	1.748717 
0.091400	 820.668081	 276.199946	-53.245453	222.954493	1.748557 
0.091500	 820.527209	 276.152535	-53.150630	223.001904	1.748397 
0.091600	 820.386291	 276.105108	-53.055778	223.049331	1.748236 
0.091700	 820.245330	 276.057667	-52.960895	223.096772	1.748076 
0.091800	 820.104325	 276.010211	-52.865983	223.144228	1.747915 
0.091900	 819.963279	 275.962741	-52.771043	223.191698	1.747754 
0.092000	 819.822191	 275.915257	-52.676076	223.239182	1.747593 
0.092100	 819.681062	 275.867760	-52.581081	223.286679	1.747432 
0.092200	 819.539894	 275.820249	-52.486059	223.334190	1.747271 
0.092300	 819.398687	 275.772725	-52.391011	223.381714	1.747110 
0.092400	 819.257442	 275.725188	-52.295938	223.429251	1.746949 
0.092500	 819.116159	 275.677639	-52.200839	223.476800	1.746787 
0.092600	 818.974840	 275.630077	-52.105715	223.524362	1.746626 
0.092700	 818.833484	 275.582503	-52.010567	223.571936	1.746464 
0.092800	 818.692093	 275.534917	-51.915395	223.619522	1.746302 
0.092900	 818.550666	 275.487319	-51.820200	223.667120	1.746140 
0.093000	 818.409204	 275.439710	-51.724980	223.714729	1.745978 
0.093100	 818.267709	 275.392089	-51.629738	223.762350	1.745816 
0.093200	 818.126179	 275.344456	-51.534473	223.809983	1.745654 
0.093300	 817.984616	 275.296812	-51.439186	223.857627	1.745491 
0.093400	 817.843019	 275.249157	-51.343876	223.905282	1.745329 
0.093500	 817.701390	 275.201491	-51.248543	223.952948	1.745166 
0.093600	 817.559728	 275.153814	-51.153189	224.000625	1.745004 
0.093700	 817.418033	 275.106126	-51.057813	224.048313	1.744841 
0.093800	 817.276306	 275.058427	-50.962415	224.096012	1.744678 
0.093900	 817.134547	 275.010717	-50.866996	224.143722	1.744515 
0.094000	 816.992755	 274.962997	-50.771554	224.191442	1.744352 
0.094100	 816.850932	 274.915265	-50.676092	224.239174	1.744189 
0.094200	 816.709076	 274.867523	-50.580607	224.286916	1.744026 
0.094300	 816.567189	 274.819770	-50.485101	224.334669	1.743862 
0.094400	 816.425269	 274.772007	-50.389574	224.382433	1.743699 
0.094500	 816.283318	 274.724232	-50.294025	224.430207	1.743535 
0.094600	 816.141334	 274.676447	-50.198454	224.477992	1.743372 
0.094700	 815.999318	 274.628651	-50.102862	224.525789	1.743208 
0.094800	 815.857270	 274.580844	-50.007248	224.573596	1.743044 
0.094900	 815.715189	 274.533026	-49.911612	224.621414	1.742880 
0.095000	 815.573076	 274.485197	-49.815954	224.669243	1.742716 
0.095100	 815.430929	 274.437356	-49.720274	224.717083	1.742552 
0.095200	 815.288750	 274.389505	-49.624571	224.764934	1.742388 
0.095300	 815.146537	 274.341643	-49.528846	224.812796	1.742224 
0.095400	 815.004290	 274.293769	-49.433099	224.860670	1.742059 
0.095500	 814.862010	 274.245884	-49.337328	224.908555	1.741895 
0.095600	 814.719695	 274.197987	-49.241535	224.956452	1.741730 
0.095700	 814.577346	 274.150079	-49.145718	225.004360	1.741566 
0.095800	 814.434962	 274.102159	-49.049878	225.052281	1.741401 
0.095900	 814.292542	 274.054227	-48.954014	225.100213	1.741236 
0.096000	 814.150087	 274.006283	-48.858126	225.148157	1.741071 
0.096100	 814.007596	 273.958327	-48.762214	225.196113	1.740906 
0.096200	 813.865069	 273.910358	-48.666277	225.244081	1.740741 
0.096300	 813.722505	 273.862378	-48.570316	225.292062	1.740576 
0.096400	 813.579903	 273.814384	-48.474330	225.340055	1.740410 
0.096500	 813.437265	 273.766379	-48.378318	225.388061	1.740245 
0.096600	 813.294588	 273.718360	-48.282281	225.436079	1.740079 
0.096700	 813.151873	 273.670329	-48.186218	225.484111	1.739914 
0.096800	 813.009119	 273.622284	-48.090129	225.532155	1.739748 
0.096900	 812.866326	 273.574226	-47.994013	225.580213	1.739582 
0.097000	 812.723493	 273.526155	-47.897871	225.628284	1.739417 
0.097100	 812.580620	 273.478071	-47.801702	225.676369	1.739251 
0.097200	 812.437707	 273.429972	-47.705506	225.724467	1.739085 
0.097300	 812.294752	 273.381860	-47.609282	225.772579	1.738918 
0.097400	 812.151757	 273.333735	-47.513030	225.820705	1.738752 
0.097500	 812.008720	 273.285595	-47.416750	225.868844	1.738586 
0.097600	 811.865641	 273.237441	-47.320443	225.916998	1.738419 
0.097700	 811.722520	 273.189273	-47.224106	225.965167	1.738253 
0.097800	 811.579356	 273.141090	-47.127741	226.013349	1.738086 
0.097900	 811.436148	 273.092893	-47.031347	226.061546	1.737920 
0.098000	 811.292898	 273.044681	-46.934923	226.109758	1.737753 
0.098100	 811.149604	 272.996455	-46.838471	226.157984	1.737586 
0.098200	 811.006266	 272.948214	-46.741989	226.206225	1.737419 
0.098300	 810.862884	 272.899958	-46.645477	226.254481	1.737252 
0.098400	 810.719457	 272.851687	-46.548935	226.302752	1.737085 
0.098500	 810.575986	 272.803401	-46.452363	226.351038	1.736917 
0.098600	 810.432470	 272.755100	-46.355761	226.399339	1.736750 
0.098700	 810.288909	 272.706784	-46.259129	226.447655	1.736583 
0.098800	 810.145304	 272.658453	-46.162466	226.495986	1.736415 
0.098900	 810.001653	 272.610106	-46.065773	226.544333	1.736247 
0.099000	 809.857957	 272.561745	-45.969050	226.592694	1.736080 
0.099100	 809.714216	 272.513368	-45.872297	226.641071	1.735912 
0.099200	 809.570430	 272.464976	-45.775513	226.689463	1.735744 
0.099300	 809.426599	 272.416569	-45.678699	226.737870	1.735576 
0.099400	 809.282724	 272.368147	-45.581855	226.786292	1.735408 
0.099500	 809.138803	 272.319710	-45.484981	226.834729	1.735240 
0.099600	 808.994839	 272.271258	-45.388077	226.883181	1.735071 
0.099700	 808.850830	 272.222791	-45.291143	226.931648	1.734903 
0.099800	 808.706778	 272.174310	-45.194180	226.980130	1.734735 
0.099900	 808.562682	 272.125813	-45.097188	227.028626	1.734566 
0.100000	 808.418543	 272.077303	-45.000166	227.077136	1.734397 
